Time,avg(T)
0.5,298.02
1,298.06
1.5,298.11
2,298.18
2.5,298.24
3,298.32
3.5,298.4
4,298.49
4.5,298.58
5,298.67
5.5,298.77
6,298.87
6.5,298.98
7,299.1
7.5,299.22
8,299.34
8.5,299.47
9,299.6
9.5,299.74
10,299.88
10.5,300.02
11,300.17
11.5,300.32
12,300.47
12.5,300.63
13,300.79
13.5,300.95
14,301.11
14.5,301.28
15,301.44
15.5,301.61
16,301.78
16.5,301.95
17,302.12
17.5,302.28
18,302.45
18.5,302.62
19,302.79
19.5,302.96
20,303.13
20.5,303.3
21,303.48
21.5,303.65
22,303.83
22.5,304
23,304.18
23.5,304.36
24,304.54
24.5,304.72
25,304.89
25.5,305.07
26,305.25
26.5,305.43
27,305.61
27.5,305.8
28,305.98
28.5,306.16
29,306.35
29.5,306.53
30,306.72
30.5,306.9
31,307.08
31.5,307.27
32,307.45
32.5,307.64
33,307.82
33.5,308.01
34,308.19
34.5,308.38
35,308.56
35.5,308.74
36,308.92
36.5,309.11
37,309.29
37.5,309.48
38,309.66
38.5,309.84
39,310.03
39.5,310.21
40,310.4
40.5,310.58
41,310.77
41.5,310.96
42,311.14
42.5,311.33
43,311.52
43.5,311.7
44,311.89
44.5,312.07
45,312.26
45.5,312.45
46,312.63
46.5,312.82
47,313.01
47.5,313.19
48,313.38
48.5,313.56
49,313.74
49.5,313.93
50,314.11
50.5,314.3
51,314.48
51.5,314.67
52,314.85
52.5,315.04
53,315.22
53.5,315.41
54,315.6
54.5,315.78
55,315.97
55.5,316.15
56,316.34
56.5,316.52
57,316.7
57.5,316.88
58,317.06
58.5,317.25
59,317.43
59.5,317.61
60,317.79
60.5,317.98
61,318.16
61.5,318.35
62,318.53
62.5,318.71
63,318.9
63.5,319.08
64,319.27
64.5,319.45
65,319.63
65.5,319.82
66,320
66.5,320.18
67,320.36
67.5,320.54
68,320.72
68.5,320.91
69,321.09
69.5,321.27
70,321.45
70.5,321.64
71,321.82
71.5,322
72,322.18
72.5,322.37
73,322.55
73.5,322.73
74,322.92
74.5,323.1
75,323.28
75.5,323.47
76,323.65
76.5,323.83
77,324.02
77.5,324.2
78,324.38
78.5,324.56
79,324.74
79.5,324.92
80,325.1
80.5,325.28
81,325.46
81.5,325.64
82,325.82
82.5,326
83,326.18
83.5,326.36
84,326.55
84.5,326.73
85,326.91
85.5,327.09
86,327.27
86.5,327.45
87,327.63
87.5,327.81
88,327.99
88.5,328.17
89,328.35
89.5,328.53
90,328.71
90.5,328.89
91,329.07
91.5,329.25
92,329.43
92.5,329.61
93,329.79
93.5,329.97
94,330.14
94.5,330.32
95,330.5
95.5,330.68
96,330.86
96.5,331.04
97,331.22
97.5,331.4
98,331.58
98.5,331.76
99,331.93
99.5,332.11
100,332.29
100.5,332.47
101,332.65
101.5,332.83
102,333.01
102.5,333.19
103,333.37
103.5,333.55
104,333.73
104.5,333.9
105,334.08
105.5,334.26
106,334.43
106.5,334.61
107,334.79
107.5,334.96
108,335.14
108.5,335.32
109,335.5
109.5,335.67
110,335.85
110.5,336.03
111,336.21
111.5,336.39
112,336.57
112.5,336.74
113,336.92
113.5,337.09
114,337.27
114.5,337.44
115,337.62
115.5,337.79
116,337.97
116.5,338.14
117,338.32
117.5,338.5
118,338.67
118.5,338.85
119,339.03
119.5,339.2
120,339.38
120.5,339.56
121,339.74
121.5,339.91
122,340.09
122.5,340.27
123,340.44
123.5,340.61
124,340.79
124.5,340.96
125,341.14
125.5,341.31
126,341.49
126.5,341.67
127,341.84
127.5,342.02
128,342.2
128.5,342.37
129,342.54
129.5,342.72
130,342.89
130.5,343.07
131,343.24
131.5,343.42
132,343.59
132.5,343.76
133,343.94
133.5,344.11
134,344.28
134.5,344.46
135,344.63
135.5,344.81
136,344.98
136.5,345.15
137,345.32
137.5,345.5
138,345.67
138.5,345.84
139,346.01
139.5,346.19
140,346.36
140.5,346.53
141,346.7
141.5,346.87
142,347.05
142.5,347.22
143,347.39
143.5,347.57
144,347.74
144.5,347.91
145,348.09
145.5,348.26
146,348.43
146.5,348.6
147,348.77
147.5,348.95
148,349.12
148.5,349.29
149,349.47
149.5,349.64
150,349.81
150.5,349.98
151,350.16
151.5,350.33
152,350.5
152.5,350.67
153,350.85
153.5,351.02
154,351.19
154.5,351.36
155,351.53
155.5,351.7
156,351.88
156.5,352.05
157,352.22
157.5,352.39
158,352.56
158.5,352.72
159,352.89
159.5,353.06
160,353.23
160.5,353.4
161,353.57
161.5,353.74
162,353.91
162.5,354.08
163,354.25
163.5,354.42
164,354.59
164.5,354.76
165,354.93
165.5,355.1
166,355.27
166.5,355.44
167,355.61
167.5,355.78
168,355.95
168.5,356.12
169,356.29
169.5,356.46
170,356.63
170.5,356.8
171,356.97
171.5,357.14
172,357.31
172.5,357.48
173,357.65
173.5,357.82
174,357.99
174.5,358.16
175,358.33
175.5,358.49
176,358.66
176.5,358.83
177,359
177.5,359.17
178,359.33
178.5,359.5
179,359.67
179.5,359.84
180,360.01
180.5,360.17
181,360.34
181.5,360.51
182,360.68
182.5,360.84
183,361.01
183.5,361.18
184,361.35
184.5,361.51
185,361.68
185.5,361.85
186,362.02
186.5,362.18
187,362.35
187.5,362.52
188,362.69
188.5,362.85
189,363.02
189.5,363.18
190,363.35
190.5,363.51
191,363.68
191.5,363.84
192,364.01
192.5,364.17
193,364.34
193.5,364.5
194,364.67
194.5,364.84
195,365
195.5,365.17
196,365.33
196.5,365.5
197,365.67
197.5,365.83
198,366
198.5,366.17
199,366.34
199.5,366.51
200,366.68
200.5,366.84
201,367.01
201.5,367.17
202,367.34
202.5,367.5
203,367.67
203.5,367.83
204,368
204.5,368.16
205,368.33
205.5,368.49
206,368.66
206.5,368.82
207,368.98
207.5,369.15
208,369.31
208.5,369.48
209,369.64
209.5,369.8
210,369.97
